LabVIEW Measurement	
Writer_Version	2
Reader_Version	2
Separator	Tab
Decimal_Separator	.
Multi_Headings	No
X_Columns	Multi
Time_Pref	Absolute
Operator	mjrx7
Date	2019/09/20
Time	13:57:52.8860935499429005086
***End_of_Header***	
	
Channels	1	
Samples	2000	
Date	2019/09/20	
Time	13:57:52.8860935499429005086	
Y_Unit_Label	Volts	
X_Dimension	Time	
X0	0.0000000000000000E+0	
Delta_X	0.020000	
***End_of_Header***		
X_Value	Voltage (Collected)	Comment
0.000000	0.451579
0.020000	0.447304
0.040000	0.443028
0.060000	0.436780
0.080000	0.432504
0.100000	0.425598
0.120000	0.418692
0.140000	0.412443
0.160000	0.402577
0.180000	0.394684
0.200000	0.386462
0.220000	0.376267
0.240000	0.367387
0.260000	0.357192
0.280000	0.346011
0.300000	0.335158
0.320000	0.323976
0.340000	0.314439
0.360000	0.302599
0.380000	0.292733
0.400000	0.281223
0.420000	0.270041
0.440000	0.260175
0.460000	0.251624
0.480000	0.241429
0.500000	0.229918
0.520000	0.221696
0.540000	0.215448
0.560000	0.206897
0.580000	0.198017
0.600000	0.192427
0.620000	0.186178
0.640000	0.181245
0.660000	0.176970
0.680000	0.172694
0.700000	0.169077
0.720000	0.165130
0.740000	0.165788
0.760000	0.165459
0.780000	0.165130
0.800000	0.163486
0.820000	0.165459
0.840000	0.169077
0.860000	0.172036
0.880000	0.176312
0.900000	0.181245
0.920000	0.185520
0.940000	0.193742
0.960000	0.199662
0.980000	0.206239
1.000000	0.216434
1.020000	0.225643
1.040000	0.235838
1.060000	0.244718
1.080000	0.253597
1.100000	0.263134
1.120000	0.274645
1.140000	0.286484
1.160000	0.298653
1.180000	0.308190
1.200000	0.318056
1.220000	0.328580
1.240000	0.340420
1.260000	0.351601
1.280000	0.362454
1.300000	0.371005
1.320000	0.377911
1.340000	0.385804
1.360000	0.396328
1.380000	0.404221
1.400000	0.411128
1.420000	0.416718
1.440000	0.421980
1.460000	0.427900
1.480000	0.435793
1.500000	0.439740
1.520000	0.441055
1.540000	0.444344
1.560000	0.446317
1.580000	0.448619
1.600000	0.449935
1.620000	0.448619
1.640000	0.449606
1.660000	0.447633
1.680000	0.445002
1.700000	0.441384
1.720000	0.438095
1.740000	0.435464
1.760000	0.429545
1.780000	0.424940
1.800000	0.419021
1.820000	0.411128
1.840000	0.404221
1.860000	0.398630
1.880000	0.391395
1.900000	0.380542
1.920000	0.371663
1.940000	0.363441
1.960000	0.354561
1.980000	0.344695
2.000000	0.334829
2.020000	0.325292
2.040000	0.314439
2.060000	0.303915
2.080000	0.295035
2.100000	0.284511
2.120000	0.273330
2.140000	0.264121
2.160000	0.255242
2.180000	0.244060
2.200000	0.234851
2.220000	0.229260
2.240000	0.222025
2.260000	0.213146
2.280000	0.206239
2.300000	0.201635
2.320000	0.194071
2.340000	0.190782
2.360000	0.187165
2.380000	0.181903
2.400000	0.177298
2.420000	0.174010
2.440000	0.174339
2.460000	0.175325
2.480000	0.173023
2.500000	0.172365
2.520000	0.173681
2.540000	0.177298
2.560000	0.182560
2.580000	0.185520
2.600000	0.186836
2.620000	0.194400
2.640000	0.199991
2.660000	0.206897
2.680000	0.213475
2.700000	0.221039
2.720000	0.227616
2.740000	0.238469
2.760000	0.247020
2.780000	0.256886
2.800000	0.267410
2.820000	0.276618
2.840000	0.285169
2.860000	0.296022
2.880000	0.307532
2.900000	0.317727
2.920000	0.329896
2.940000	0.336144
2.960000	0.345024
2.980000	0.355548
3.000000	0.365743
3.020000	0.373636
3.040000	0.382844
3.060000	0.387449
3.080000	0.395342
3.100000	0.402906
3.120000	0.408497
3.140000	0.415074
3.160000	0.420336
3.180000	0.425598
3.200000	0.428887
3.220000	0.431847
3.240000	0.434149
3.260000	0.437766
3.280000	0.440397
3.300000	0.439740
3.320000	0.438095
3.340000	0.438753
3.360000	0.438424
3.380000	0.436451
3.400000	0.433491
3.420000	0.432176
3.440000	0.426256
3.460000	0.421323
3.480000	0.417705
3.500000	0.413759
3.520000	0.405866
3.540000	0.400275
3.560000	0.392711
3.580000	0.384818
3.600000	0.376925
3.620000	0.369361
3.640000	0.360810
3.660000	0.351930
3.680000	0.342722
3.700000	0.333513
3.720000	0.323976
3.740000	0.315754
3.760000	0.306217
3.780000	0.297337
3.800000	0.286484
3.820000	0.277276
3.840000	0.269054
3.860000	0.258530
3.880000	0.250637
3.900000	0.243073
3.920000	0.234194
3.940000	0.225972
3.960000	0.220381
3.980000	0.215448
4.000000	0.206897
4.020000	0.200977
4.040000	0.198675
4.060000	0.194071
4.080000	0.190782
4.100000	0.186178
4.120000	0.183547
4.140000	0.185191
4.160000	0.182889
4.180000	0.180587
4.200000	0.180916
4.220000	0.183547
4.240000	0.186507
4.260000	0.190125
4.280000	0.191111
4.300000	0.194071
4.320000	0.200648
4.340000	0.207884
4.360000	0.214132
4.380000	0.219723
4.400000	0.225314
4.420000	0.233207
4.440000	0.242087
4.460000	0.250966
4.480000	0.259517
4.500000	0.267739
4.520000	0.275303
4.540000	0.287471
4.560000	0.298324
4.580000	0.307532
4.600000	0.316083
4.620000	0.324963
4.640000	0.334500
4.660000	0.344695
4.680000	0.353904
4.700000	0.360810
4.720000	0.368703
4.740000	0.375609
4.760000	0.382844
4.780000	0.390409
4.800000	0.396328
4.820000	0.401590
4.840000	0.408168
4.860000	0.414745
4.880000	0.417047
4.900000	0.420665
4.920000	0.425269
4.940000	0.429216
4.960000	0.429545
4.980000	0.431189
5.000000	0.430202
5.020000	0.430531
5.040000	0.430860
5.060000	0.429216
5.080000	0.428229
5.100000	0.426585
5.120000	0.421323
5.140000	0.418692
5.160000	0.416718
5.180000	0.412114
5.200000	0.405537
5.220000	0.400604
5.240000	0.393697
5.260000	0.386462
5.280000	0.381200
5.300000	0.374951
5.320000	0.365743
5.340000	0.357192
5.360000	0.349628
5.380000	0.339433
5.400000	0.332527
5.420000	0.324963
5.440000	0.314768
5.460000	0.305559
5.480000	0.298324
5.500000	0.288787
5.520000	0.279249
5.540000	0.271685
5.560000	0.263792
5.580000	0.253926
5.600000	0.246362
5.620000	0.239456
5.640000	0.232549
5.660000	0.225314
5.680000	0.219723
5.700000	0.214461
5.720000	0.208213
5.740000	0.203279
5.760000	0.202293
5.780000	0.199004
5.800000	0.194400
5.820000	0.192098
5.840000	0.190782
5.860000	0.191111
5.880000	0.191111
5.900000	0.188809
5.920000	0.191111
5.940000	0.194071
5.960000	0.195058
5.980000	0.199004
6.000000	0.202622
6.020000	0.208213
6.040000	0.213803
6.060000	0.219394
6.080000	0.223670
6.100000	0.230247
6.120000	0.239127
6.140000	0.247020
6.160000	0.253597
6.180000	0.261161
6.200000	0.269054
6.220000	0.278592
6.240000	0.289444
6.260000	0.298324
6.280000	0.305888
6.300000	0.314768
6.320000	0.323647
6.340000	0.333842
6.360000	0.341735
6.380000	0.349957
6.400000	0.356206
6.420000	0.364756
6.440000	0.371005
6.460000	0.378569
6.480000	0.384160
6.500000	0.389422
6.520000	0.395342
6.540000	0.401919
6.560000	0.407181
6.580000	0.411128
6.600000	0.414416
6.620000	0.417705
6.640000	0.421652
6.660000	0.422309
6.680000	0.422638
6.700000	0.424611
6.720000	0.424940
6.740000	0.423296
6.760000	0.422638
6.780000	0.420994
6.800000	0.417705
6.820000	0.414087
6.840000	0.413430
6.860000	0.410470
6.880000	0.403563
6.900000	0.400275
6.920000	0.396657
6.940000	0.389422
6.960000	0.383831
6.980000	0.376925
7.000000	0.370347
7.020000	0.361797
7.040000	0.354890
7.060000	0.347655
7.080000	0.338775
7.100000	0.330225
7.120000	0.323647
7.140000	0.313781
7.160000	0.305559
7.180000	0.298653
7.200000	0.290102
7.220000	0.281223
7.240000	0.274316
7.260000	0.266752
7.280000	0.258859
7.300000	0.250308
7.320000	0.243731
7.340000	0.237482
7.360000	0.230905
7.380000	0.225643
7.400000	0.219394
7.420000	0.214132
7.440000	0.210186
7.460000	0.207555
7.480000	0.204595
7.500000	0.200977
7.520000	0.199004
7.540000	0.199004
7.560000	0.198675
7.580000	0.198017
7.600000	0.196702
7.620000	0.197360
7.640000	0.200977
7.660000	0.204266
7.680000	0.206568
7.700000	0.208541
7.720000	0.212159
7.740000	0.218408
7.760000	0.226958
7.780000	0.231234
7.800000	0.236167
7.820000	0.242087
7.840000	0.249322
7.860000	0.258201
7.880000	0.265765
7.900000	0.273658
7.920000	0.280894
7.940000	0.288458
7.960000	0.296680
7.980000	0.306875
8.000000	0.315754
8.020000	0.324963
8.040000	0.332198
8.060000	0.339104
8.080000	0.346997
8.100000	0.355219
8.120000	0.362783
8.140000	0.368374
8.160000	0.373965
8.180000	0.379556
8.200000	0.385475
8.220000	0.392053
8.240000	0.396657
8.260000	0.400604
8.280000	0.404221
8.300000	0.407839
8.320000	0.412114
8.340000	0.413430
8.360000	0.415074
8.380000	0.416718
8.400000	0.417376
8.420000	0.417047
8.440000	0.416061
8.460000	0.415074
8.480000	0.414416
8.500000	0.411128
8.520000	0.409483
8.540000	0.406852
8.560000	0.402577
8.580000	0.397973
8.600000	0.395013
8.620000	0.390737
8.640000	0.383502
8.660000	0.378569
8.680000	0.372321
8.700000	0.366072
8.720000	0.359823
8.740000	0.351930
8.760000	0.344695
8.780000	0.336802
8.800000	0.327923
8.820000	0.322332
8.840000	0.315096
8.860000	0.305230
8.880000	0.297337
8.900000	0.291089
8.920000	0.282538
8.940000	0.274974
8.960000	0.268396
8.980000	0.261819
9.000000	0.254255
9.020000	0.247020
9.040000	0.241100
9.060000	0.236825
9.080000	0.231234
9.100000	0.223670
9.120000	0.219723
9.140000	0.217421
9.160000	0.214790
9.180000	0.210186
9.200000	0.207226
9.220000	0.205910
9.240000	0.205910
9.260000	0.205582
9.280000	0.203279
9.300000	0.203937
9.320000	0.206897
9.340000	0.207884
9.360000	0.210844
9.380000	0.211830
9.400000	0.214461
9.420000	0.219723
9.440000	0.225972
9.460000	0.231234
9.480000	0.236167
9.500000	0.239456
9.520000	0.246691
9.540000	0.255242
9.560000	0.262806
9.580000	0.268396
9.600000	0.274974
9.620000	0.282209
9.640000	0.291089
9.660000	0.300297
9.680000	0.307532
9.700000	0.314439
9.720000	0.322989
9.740000	0.328909
9.760000	0.338775
9.780000	0.346668
9.800000	0.352588
9.820000	0.359166
9.840000	0.364756
9.860000	0.370676
9.880000	0.376596
9.900000	0.382516
9.920000	0.386462
9.940000	0.390080
9.960000	0.395342
9.980000	0.399946
10.000000	0.402577
10.020000	0.405208
10.040000	0.407181
10.060000	0.409483
10.080000	0.411456
10.100000	0.411128
10.120000	0.410470
10.140000	0.410799
10.160000	0.410141
10.180000	0.408168
10.200000	0.405866
10.220000	0.403235
10.240000	0.400275
10.260000	0.396986
10.280000	0.393040
10.300000	0.389422
10.320000	0.384818
10.340000	0.378240
10.360000	0.373307
10.380000	0.368374
10.400000	0.363112
10.420000	0.355219
10.440000	0.347655
10.460000	0.343051
10.480000	0.334829
10.500000	0.327923
10.520000	0.321016
10.540000	0.313123
10.560000	0.305559
10.580000	0.298982
10.600000	0.291418
10.620000	0.284840
10.640000	0.276947
10.660000	0.269383
10.680000	0.263134
10.700000	0.258201
10.720000	0.251953
10.740000	0.244060
10.760000	0.239784
10.780000	0.235838
10.800000	0.229918
10.820000	0.226629
10.840000	0.221039
10.860000	0.220710
10.880000	0.216763
10.900000	0.213146
10.920000	0.212159
10.940000	0.211830
10.960000	0.211172
10.980000	0.210844
11.000000	0.211172
11.020000	0.211830
11.040000	0.214461
11.060000	0.216763
11.080000	0.218408
11.100000	0.221696
11.120000	0.227616
11.140000	0.230905
11.160000	0.235180
11.180000	0.240113
11.200000	0.245375
11.220000	0.251953
11.240000	0.259188
11.260000	0.265108
11.280000	0.271027
11.300000	0.277934
11.320000	0.286813
11.340000	0.293391
11.360000	0.300297
11.380000	0.306217
11.400000	0.314768
11.420000	0.323647
11.440000	0.330882
11.460000	0.337131
11.480000	0.342393
11.500000	0.349299
11.520000	0.357521
11.540000	0.363770
11.560000	0.368045
11.580000	0.372649
11.600000	0.378240
11.620000	0.383502
11.640000	0.388435
11.660000	0.390080
11.680000	0.392382
11.700000	0.396986
11.720000	0.400604
11.740000	0.400933
11.760000	0.403235
11.780000	0.404550
11.800000	0.404550
11.820000	0.402906
11.840000	0.403892
11.860000	0.403892
11.880000	0.400604
11.900000	0.400275
11.920000	0.397644
11.940000	0.394684
11.960000	0.390737
11.980000	0.387449
12.000000	0.383831
12.020000	0.378898
12.040000	0.374294
12.060000	0.370676
12.080000	0.363770
12.100000	0.356535
12.120000	0.352259
12.140000	0.346011
12.160000	0.339433
12.180000	0.332527
12.200000	0.326936
12.220000	0.318056
12.240000	0.311479
12.260000	0.306546
12.280000	0.298982
12.300000	0.290431
12.320000	0.283854
12.340000	0.279249
12.360000	0.272343
12.380000	0.265437
12.400000	0.258859
12.420000	0.253597
12.440000	0.248006
12.460000	0.243402
12.480000	0.239784
12.500000	0.235838
12.520000	0.229589
12.540000	0.226301
12.560000	0.225643
12.580000	0.222683
12.600000	0.218408
12.620000	0.217092
12.640000	0.216763
12.660000	0.217421
12.680000	0.216434
12.700000	0.216763
12.720000	0.218408
12.740000	0.219394
12.760000	0.221368
12.780000	0.224656
12.800000	0.227945
12.820000	0.232549
12.840000	0.235838
12.860000	0.239784
12.880000	0.244060
12.900000	0.250637
12.920000	0.256557
12.940000	0.261819
12.960000	0.268068
12.980000	0.274316
13.000000	0.281551
13.020000	0.287800
13.040000	0.294377
13.060000	0.301284
13.080000	0.308848
13.100000	0.317727
13.120000	0.322332
13.140000	0.328580
13.160000	0.335487
13.180000	0.342722
13.200000	0.350286
13.220000	0.354890
13.240000	0.359166
13.260000	0.365085
13.280000	0.370676
13.300000	0.375609
13.320000	0.378240
13.340000	0.382187
13.360000	0.386791
13.380000	0.389422
13.400000	0.392053
13.420000	0.394684
13.440000	0.397315
13.460000	0.397315
13.480000	0.396657
13.500000	0.399288
13.520000	0.400275
13.540000	0.397973
13.560000	0.396657
13.580000	0.395671
13.600000	0.394355
13.620000	0.391395
13.640000	0.388435
13.660000	0.386462
13.680000	0.382187
13.700000	0.377911
13.720000	0.374294
13.740000	0.370676
13.760000	0.364428
13.780000	0.359166
13.800000	0.354890
13.820000	0.348313
13.840000	0.342064
13.860000	0.336802
13.880000	0.330225
13.900000	0.323647
13.920000	0.318056
13.940000	0.311808
13.960000	0.304901
13.980000	0.297337
14.000000	0.292075
14.020000	0.285498
14.040000	0.279578
14.060000	0.272672
14.080000	0.267410
14.100000	0.262477
14.120000	0.255899
14.140000	0.250308
14.160000	0.247020
14.180000	0.242415
14.200000	0.237482
14.220000	0.233536
14.240000	0.231891
14.260000	0.229589
14.280000	0.225643
14.300000	0.224327
14.320000	0.222025
14.340000	0.222683
14.360000	0.222354
14.380000	0.222354
14.400000	0.222354
14.420000	0.223999
14.440000	0.226301
14.460000	0.229589
14.480000	0.229918
14.500000	0.232220
14.520000	0.236825
14.540000	0.240442
14.560000	0.245375
14.580000	0.249651
14.600000	0.255570
14.620000	0.260503
14.640000	0.266423
14.660000	0.271685
14.680000	0.277276
14.700000	0.284182
14.720000	0.291089
14.740000	0.296680
14.760000	0.303257
14.780000	0.309506
14.800000	0.317070
14.820000	0.323647
14.840000	0.328580
14.860000	0.334829
14.880000	0.341078
14.900000	0.347984
14.920000	0.352588
14.940000	0.357521
14.960000	0.362125
14.980000	0.368045
15.000000	0.371334
15.020000	0.375280
15.040000	0.378240
15.060000	0.383502
15.080000	0.386133
15.100000	0.387120
15.120000	0.389751
15.140000	0.391724
15.160000	0.393040
15.180000	0.393040
15.200000	0.394026
15.220000	0.393697
15.240000	0.392711
15.260000	0.391395
15.280000	0.390409
15.300000	0.389422
15.320000	0.385804
15.340000	0.382844
15.360000	0.381200
15.380000	0.376925
15.400000	0.374294
15.420000	0.371005
15.440000	0.365743
15.460000	0.359823
15.480000	0.356206
15.500000	0.351601
15.520000	0.345024
15.540000	0.340091
15.560000	0.334829
15.580000	0.328251
15.600000	0.322332
15.620000	0.316741
15.640000	0.309177
15.660000	0.302928
15.680000	0.297995
15.700000	0.291089
15.720000	0.284511
15.740000	0.279578
15.760000	0.274974
15.780000	0.268068
15.800000	0.263463
15.820000	0.258859
15.840000	0.252939
15.860000	0.248335
15.880000	0.245046
15.900000	0.241758
15.920000	0.237811
15.940000	0.234194
15.960000	0.233207
15.980000	0.231563
16.000000	0.228932
16.020000	0.227945
16.040000	0.227616
16.060000	0.227945
16.080000	0.227287
16.100000	0.227945
16.120000	0.229918
16.140000	0.231234
16.160000	0.231234
16.180000	0.235180
16.200000	0.238798
16.220000	0.242744
16.240000	0.245704
16.260000	0.249322
16.280000	0.253268
16.300000	0.259188
16.320000	0.264450
16.340000	0.269712
16.360000	0.273987
16.380000	0.281223
16.400000	0.287800
16.420000	0.293062
16.440000	0.298653
16.460000	0.305559
16.480000	0.310163
16.500000	0.317399
16.520000	0.323976
16.540000	0.328909
16.560000	0.335487
16.580000	0.341078
16.600000	0.348313
16.620000	0.351601
16.640000	0.354890
16.660000	0.360152
16.680000	0.366072
16.700000	0.369690
16.720000	0.371663
16.740000	0.375280
16.760000	0.378898
16.780000	0.381529
16.800000	0.383502
16.820000	0.385475
16.840000	0.386791
16.860000	0.389093
16.880000	0.388106
16.900000	0.388435
16.920000	0.388764
16.940000	0.389093
16.960000	0.387120
16.980000	0.385147
17.000000	0.384489
17.020000	0.381529
17.040000	0.379227
17.060000	0.376925
17.080000	0.372978
17.100000	0.368045
17.120000	0.365743
17.140000	0.362125
17.160000	0.356206
17.180000	0.352259
17.200000	0.347984
17.220000	0.342064
17.240000	0.335816
17.260000	0.331869
17.280000	0.325949
17.300000	0.319372
17.320000	0.313452
17.340000	0.309177
17.360000	0.301942
17.380000	0.296351
17.400000	0.291089
17.420000	0.285498
17.440000	0.279578
17.460000	0.274316
17.480000	0.271027
17.500000	0.264121
17.520000	0.258859
17.540000	0.256557
17.560000	0.252939
17.580000	0.248335
17.600000	0.244060
17.620000	0.242087
17.640000	0.238798
17.660000	0.236167
17.680000	0.234851
17.700000	0.234522
17.720000	0.232220
17.740000	0.230905
17.760000	0.231563
17.780000	0.233536
17.800000	0.233865
17.820000	0.232878
17.840000	0.235838
17.860000	0.239127
17.880000	0.241100
17.900000	0.242744
17.920000	0.246362
17.940000	0.250308
17.960000	0.254584
17.980000	0.258201
18.000000	0.262477
18.020000	0.267739
18.040000	0.274316
18.060000	0.278263
18.080000	0.283854
18.100000	0.288787
18.120000	0.296022
18.140000	0.301284
18.160000	0.306217
18.180000	0.312137
18.200000	0.318056
18.220000	0.324634
18.240000	0.329896
18.260000	0.334171
18.280000	0.340420
18.300000	0.346011
18.320000	0.350286
18.340000	0.353904
18.360000	0.358508
18.380000	0.363770
18.400000	0.366072
18.420000	0.368703
18.440000	0.372978
18.460000	0.375938
18.480000	0.378240
18.500000	0.379556
18.520000	0.381200
18.540000	0.383502
18.560000	0.383502
18.580000	0.383502
18.600000	0.383831
18.620000	0.384818
18.640000	0.382844
18.660000	0.381858
18.680000	0.381858
18.700000	0.379556
18.720000	0.376596
18.740000	0.374623
18.760000	0.371992
18.780000	0.368045
18.800000	0.364756
18.820000	0.361468
18.840000	0.357521
18.860000	0.353246
18.880000	0.348970
18.900000	0.343051
18.920000	0.338118
18.940000	0.334171
18.960000	0.328909
18.980000	0.322989
19.000000	0.318385
19.020000	0.312137
19.040000	0.306546
19.060000	0.300955
19.080000	0.296680
19.100000	0.291089
19.120000	0.284182
19.140000	0.280565
19.160000	0.275303
19.180000	0.270370
19.200000	0.265765
19.220000	0.262477
19.240000	0.257544
19.260000	0.253597
19.280000	0.251295
19.300000	0.248664
19.320000	0.245375
19.340000	0.242087
19.360000	0.241100
19.380000	0.240442
19.400000	0.237811
19.420000	0.235838
19.440000	0.236496
19.460000	0.238140
19.480000	0.237153
19.500000	0.236825
19.520000	0.238798
19.540000	0.241758
19.560000	0.243073
19.580000	0.246033
19.600000	0.248335
19.620000	0.251624
19.640000	0.255242
19.660000	0.258201
19.680000	0.263792
19.700000	0.268068
19.720000	0.272014
19.740000	0.276618
19.760000	0.281223
19.780000	0.288129
19.800000	0.293720
19.820000	0.296680
19.840000	0.302599
19.860000	0.309835
19.880000	0.314439
19.900000	0.319701
19.920000	0.323976
19.940000	0.330882
19.960000	0.335816
19.980000	0.340420
20.000000	0.344366
